Jun 29 2017 at 9:55:50
Frequency: 1.00Hz.
CO2
Zero:  Value:0.91  Date:May 19 2009 at 7:53:33 AM
Span:  Value:1.00  Date:May 19 2009 at 8:00:06 AM
H2O
Zero:  Value:0.77  Date:May 19 2009 at 7:54:01 AM
Span:  Value:1.01  Date:28 Jun 2004	 at 08:29:05	
	Relative Time	Temperature	Pressure	Aux Input	CO2 Absorptance	CO2 mmol/m3	CO2 mg/m3	CO2 umol/mol	H2O Absorptance	H2O mmol/m3	H2O g/m3	H2O mmol/mol	H2O(°C)	Cooler Voltage
	0.02	23.64	73.80	0.00	0.0659	11.89	523.2	397.62	0.0417	298.0	5.364	9.96	2.52	1.62
	1.00	23.60	73.82	0.00	0.0662	11.90	523.4	397.54	0.0428	296.1	5.330	9.90	2.42	1.61
	2.02	23.64	73.82	0.00	0.0661	11.91	523.9	397.97	0.0430	311.2	5.601	10.40	3.13	1.61
	3.00	23.64	73.80	0.00	0.0660	11.91	524.0	398.21	0.0426	313.8	5.649	10.49	3.25	1.61
	4.02	23.66	73.82	0.00	0.0660	11.89	523.1	397.41	0.0430	303.8	5.468	10.15	2.79	1.61
	5.00	23.66	73.82	0.00	0.0659	11.89	523.2	397.45	0.0432	304.9	5.488	10.19	2.84	1.62
	6.02	23.64	73.82	0.00	0.0659	11.90	523.4	397.61	0.0436	311.2	5.602	10.40	3.13	1.62
	7.00	23.67	73.82	0.00	0.0660	11.89	523.1	397.39	0.0436	309.6	5.573	10.35	3.06	1.61
	8.02	23.67	73.82	0.00	0.0660	11.91	523.9	397.99	0.0439	317.7	5.718	10.62	3.42	1.62
	9.00	23.69	73.80	0.00	0.0664	11.92	524.4	398.60	0.0462	321.3	5.784	10.75	3.58	1.62
	10.00	23.71	73.80	0.00	0.0662	11.93	524.7	398.85	0.0465	333.2	5.997	11.14	4.10	1.62
	11.00	23.65	73.80	0.00	0.0661	11.92	524.4	398.49	0.0455	335.0	6.030	11.20	4.17	1.62
	12.00	23.69	73.80	0.00	0.0661	11.91	524.2	398.40	0.0451	334.0	6.013	11.17	4.13	1.62
	13.08	23.69	73.80	0.00	0.0660	11.90	523.7	398.02	0.0454	325.8	5.864	10.89	3.78	1.61
	14.00	23.67	73.82	0.00	0.0661	11.91	524.2	398.23	0.0456	329.8	5.936	11.02	3.95	1.62
	15.02	23.67	73.80	0.00	0.0660	11.90	523.8	398.07	0.0458	328.7	5.917	10.99	3.91	1.62
	16.00	23.71	73.82	0.00	0.0661	11.90	523.7	397.93	0.0456	330.0	5.941	11.03	3.96	1.61
	17.02	23.71	73.80	0.00	0.0661	11.91	524.0	398.27	0.0458	331.9	5.974	11.10	4.04	1.62
	18.00	23.71	73.77	0.00	0.0661	11.91	523.8	398.29	0.0457	331.7	5.971	11.10	4.04	1.62
	19.02	23.73	73.82	0.00	0.0662	11.95	525.6	399.41	0.0465	339.2	6.105	11.34	4.35	1.62
	20.00	23.69	73.82	0.00	0.0661	11.92	524.6	398.56	0.0462	336.8	6.062	11.26	4.25	1.62
	21.02	23.73	73.80	0.00	0.0661	11.91	524.0	398.33	0.0464	335.6	6.041	11.23	4.20	1.62
	22.00	23.74	73.82	0.00	0.0661	11.92	524.7	398.72	0.0467	337.8	6.080	11.29	4.29	1.62
	23.02	23.71	73.80	0.00	0.0662	11.96	526.3	400.07	0.0473	357.3	6.432	11.95	5.10	1.62
	24.00	23.73	73.80	0.00	0.0660	11.95	525.6	399.56	0.0472	347.8	6.260	11.63	4.71	1.62
	25.00	23.73	73.80	0.00	0.0663	11.95	525.7	399.58	0.0479	349.3	6.288	11.68	4.77	1.62
	26.08	23.71	73.80	0.00	0.0661	11.94	525.3	399.27	0.0474	348.5	6.272	11.65	4.74	1.62
	27.00	23.74	73.80	0.00	0.0661	11.95	525.8	399.74	0.0480	353.5	6.362	11.82	4.94	1.62
	28.08	23.74	73.80	0.00	0.0663	11.95	526.0	399.85	0.0484	356.7	6.420	11.93	5.07	1.62
	29.00	23.72	73.80	0.00	0.0663	11.94	525.4	399.38	0.0483	353.0	6.353	11.80	4.92	1.62
	30.02	23.76	73.82	0.00	0.0662	11.94	525.6	399.42	0.0485	355.7	6.403	11.89	5.04	1.62
	31.00	23.76	73.80	0.00	0.0664	11.98	527.0	400.60	0.0495	365.2	6.573	12.22	5.41	1.62
	32.02	23.74	73.77	0.00	0.0661	11.97	526.7	400.56	0.0486	362.8	6.530	12.14	5.32	1.62
	33.00	23.74	73.80	0.00	0.0664	11.97	526.5	400.27	0.0493	361.8	6.513	12.10	5.28	1.62
	34.02	23.76	73.80	0.00	0.0663	11.96	526.0	399.90	0.0488	361.4	6.506	12.09	5.27	1.62
	35.00	23.78	73.82	0.00	0.0665	11.95	525.9	399.71	0.0490	362.6	6.527	12.13	5.31	1.62
	36.02	23.78	73.80	0.00	0.0664	11.97	526.5	400.29	0.0493	366.9	6.605	12.27	5.48	1.62
	37.00	23.76	73.82	0.00	0.0663	11.95	525.9	399.64	0.0496	363.8	6.549	12.16	5.36	1.62
	38.02	23.80	73.82	0.00	0.0663	11.96	526.1	399.87	0.0496	366.9	6.604	12.27	5.48	1.62
	39.00	23.80	73.82	0.00	0.0661	11.96	526.1	399.84	0.0497	366.7	6.600	12.26	5.47	1.62
	40.00	23.78	73.82	0.00	0.0664	11.97	526.8	400.35	0.0499	371.3	6.683	12.42	5.65	1.62
	41.02	23.80	73.80	0.00	0.0663	11.97	526.8	400.54	0.0503	373.5	6.724	12.50	5.74	1.62
	42.00	23.78	73.80	0.00	0.0665	11.96	526.4	400.17	0.0501	372.6	6.707	12.46	5.70	1.62
	43.02	23.76	73.80	0.00	0.0667	12.00	528.2	401.55	0.0515	383.9	6.910	12.84	6.14	1.62
	44.00	23.81	73.80	0.00	0.0665	12.00	527.8	401.35	0.0510	382.3	6.881	12.79	6.08	1.62
	45.02	23.81	73.82	0.00	0.0665	11.98	527.2	400.70	0.0506	375.6	6.762	12.56	5.82	1.62
	46.00	23.81	73.80	0.00	0.0663	11.99	527.4	400.99	0.0509	378.8	6.818	12.67	5.94	1.62
	47.02	23.83	73.80	0.00	0.0664	11.98	527.3	400.93	0.0507	381.6	6.869	12.77	6.05	1.62
	48.00	23.83	73.80	0.00	0.0665	11.99	527.5	401.12	0.0512	382.7	6.889	12.80	6.09	1.62
	49.02	23.83	73.80	0.00	0.0665	11.99	527.5	401.12	0.0511	383.8	6.909	12.84	6.14	1.62
	50.00	23.81	73.80	0.00	0.0666	11.99	527.7	401.21	0.0515	385.1	6.932	12.88	6.18	1.62
	51.02	23.83	73.82	0.00	0.0666	12.03	529.1	402.20	0.0522	396.4	7.135	13.26	6.60	1.62
	52.00	23.83	73.80	0.00	0.0664	12.00	528.1	401.53	0.0517	389.9	7.017	13.04	6.36	1.62
	53.02	23.81	73.80	0.00	0.0664	12.00	527.9	401.37	0.0519	390.0	7.020	13.05	6.37	1.62
	54.00	23.85	73.77	0.00	0.0666	12.01	528.4	401.97	0.0524	393.7	7.086	13.18	6.50	1.62
	55.02	23.85	73.80	0.00	0.0666	12.01	528.6	401.94	0.0525	394.7	7.104	13.21	6.54	1.62
	56.08	23.85	73.80	0.00	0.0665	12.03	529.5	402.67	0.0525	404.3	7.277	13.53	6.89	1.62
	57.00	23.85	73.82	0.00	0.0665	12.00	528.1	401.47	0.0524	395.1	7.111	13.21	6.56	1.62
	58.02	23.87	73.80	0.00	0.0667	12.05	530.4	403.38	0.0530	401.8	7.233	13.45	6.80	1.62
	59.00	23.83	73.80	0.00	0.0667	12.04	529.8	402.88	0.0533	405.2	7.293	13.56	6.92	1.62
	60.02	23.89	73.80	0.00	0.0666	12.01	528.4	401.84	0.0530	400.5	7.209	13.40	6.76	1.62
	61.00	23.89	73.80	0.00	0.0666	12.02	528.8	402.17	0.0529	401.9	7.234	13.45	6.81	1.62
	62.02	23.89	73.80	0.00	0.0667	12.03	529.1	402.43	0.0549	406.6	7.318	13.61	6.98	1.62
	63.00	23.89	73.82	0.00	0.0668	12.05	530.0	402.94	0.0548	411.5	7.407	13.77	7.15	1.62
	64.02	23.89	73.80	0.00	0.0665	12.03	529.4	402.59	0.0534	409.3	7.367	13.70	7.07	1.62
	65.00	23.86	73.80	0.00	0.0665	12.04	529.7	402.85	0.0537	408.7	7.357	13.68	7.05	1.62
	66.02	23.89	73.82	0.00	0.0667	12.03	529.3	402.45	0.0538	409.2	7.366	13.69	7.07	1.62
	67.00	23.86	73.80	0.00	0.0666	12.04	529.8	402.87	0.0541	411.7	7.410	13.77	7.16	1.62
	68.02	23.90	73.82	0.00	0.0666	12.04	529.8	402.81	0.0544	413.0	7.433	13.82	7.20	1.62
	69.00	23.90	73.80	0.00	0.0666	12.07	531.0	403.85	0.0542	421.5	7.586	14.10	7.50	1.62
	70.02	23.90	73.82	0.00	0.0665	12.05	530.1	403.01	0.0543	417.3	7.512	13.96	7.36	1.62
	71.08	23.90	73.80	0.00	0.0666	12.04	530.0	403.08	0.0545	417.0	7.507	13.96	7.35	1.62
	72.00	23.92	73.80	0.00	0.0666	12.05	530.2	403.28	0.0548	418.7	7.536	14.01	7.40	1.62
	73.02	23.92	73.80	0.00	0.0668	12.05	530.2	403.29	0.0549	420.4	7.568	14.07	7.47	1.62
	74.00	23.92	73.77	0.00	0.0667	12.05	530.1	403.33	0.0550	420.6	7.571	14.08	7.47	1.62
	75.02	23.94	73.80	0.00	0.0667	12.06	530.5	403.56	0.0550	421.9	7.594	14.12	7.52	1.62
	76.00	23.92	73.80	0.00	0.0667	12.04	529.9	403.06	0.0551	421.9	7.595	14.12	7.52	1.62
	77.02	23.92	73.77	0.00	0.0668	12.05	530.1	403.32	0.0552	424.1	7.634	14.20	7.59	1.62
	78.00	23.94	73.80	0.00	0.0669	12.06	530.8	403.80	0.0556	427.3	7.691	14.30	7.70	1.62
	79.02	23.94	73.82	0.00	0.0668	12.06	530.8	403.66	0.0555	427.6	7.696	14.31	7.71	1.62
	80.00	23.92	73.80	0.00	0.0668	12.06	530.6	403.62	0.0556	428.8	7.718	14.35	7.75	1.62
	81.02	23.92	73.82	0.00	0.0668	12.06	530.5	403.36	0.0556	429.1	7.725	14.36	7.77	1.62
	82.08	23.96	73.80	0.00	0.0668	12.07	531.1	404.02	0.0560	432.0	7.775	14.46	7.86	1.62
	83.02	23.96	73.77	0.00	0.0669	12.10	532.4	405.12	0.0563	437.5	7.875	14.65	8.05	1.62
	84.08	23.96	73.80	0.00	0.0669	12.08	531.4	404.27	0.0562	435.1	7.831	14.56	7.97	1.62
	85.02	23.95	73.80	0.00	0.0669	12.07	531.2	404.07	0.0563	434.9	7.828	14.56	7.96	1.62
	86.02	23.95	73.80	0.00	0.0670	12.09	531.8	404.51	0.0564	437.0	7.866	14.63	8.03	1.62
	87.00	23.97	73.82	0.00	0.0668	12.07	531.1	403.89	0.0564	437.6	7.876	14.64	8.06	1.63
	88.02	23.97	73.80	0.00	0.0669	12.10	532.4	405.03	0.0570	445.0	8.010	14.90	8.30	1.62
	89.00	23.95	73.80	0.00	0.0669	12.08	531.5	404.33	0.0568	440.8	7.934	14.75	8.16	1.62
	90.02	23.95	73.80	0.00	0.0670	12.10	532.3	404.93	0.0569	442.2	7.960	14.80	8.21	1.62
	91.00	23.99	73.80	0.00	0.0670	12.09	532.0	404.77	0.0571	444.0	7.992	14.86	8.27	1.62
	92.02	23.97	73.82	0.00	0.0669	12.12	533.3	405.60	0.0574	449.7	8.095	15.05	8.46	1.63
	93.00	23.99	73.77	0.00	0.0669	12.10	532.4	405.21	0.0573	446.0	8.029	14.94	8.34	1.63
	94.02	24.00	73.80	0.00	0.0670	12.11	532.8	405.37	0.0572	450.4	8.108	15.08	8.48	1.62
